# Water_Ice, Chemical Formula: H2O
# Sample ID: 300micron_sph_110K
# wavelengths (microns), reflectance
0.45	0.90794
0.5	0.90052
0.55	0.9064
0.6	0.9102
0.65	0.91226
0.7000000000000001	0.90928
0.75	0.91192
0.8	0.90145
0.85	0.89984
0.9	0.87709
0.9500000000000001	0.87091
1.0	0.83589
1.01	0.79391
1.02	0.78004
1.03	0.76204
1.04	0.75943
1.05	0.7528
1.06	0.75295
1.07	0.77348
1.08	0.78746
1.09	0.79466
1.1	0.79415
1.11	0.80927
1.12	0.78927
1.1300000000000001	0.77538
1.1400000000000001	0.77039
1.1500000000000001	0.76648
1.16	0.76298
1.17	0.74086
1.18	0.70339
1.19	0.6792
1.2	0.66236
1.21	0.62356
1.22	0.60304
1.23	0.57479
1.24	0.55206
1.25	0.53102
1.26	0.51773
1.27	0.5076
1.28	0.51395
1.29	0.52018
1.3	0.50847
1.31	0.50281
1.32	0.52926
1.33	0.55858
1.34	0.56728
1.35	0.5784
1.36	0.58046
1.37	0.58215
1.3800000000000001	0.5769
1.3900000000000001	0.56432
1.4000000000000001	0.54732
1.41	0.52607
1.42	0.48626
1.43	0.43505
1.44	0.36401
1.45	0.29079
1.46	0.20879
1.47	0.14812
1.48	0.10598
1.49	0.08038
1.5	0.07028
1.51	0.06667
1.52	0.07036
1.53	0.0682
1.54	0.06478
1.55	0.06491
1.56	0.07
1.57	0.07295
1.58	0.08361
1.59	0.09422
1.6	0.10794
1.61	0.12182
1.62	0.1268
1.6300000000000001	0.12434
1.6400000000000001	0.10858
1.6500000000000001	0.10073
1.6600000000000001	0.10206
1.67	0.13356
1.68	0.16485
1.69	0.19401
1.7	0.21774
1.71	0.23613
1.72	0.2596
1.73	0.28341
1.74	0.29436
1.75	0.30909
1.76	0.31947
1.77	0.3194
1.78	0.32463
1.79	0.32729
1.8	0.32695
1.81	0.3258
1.82	0.33475
1.83	0.3316
1.84	0.3349
1.85	0.33005
1.86	0.31462
1.87	0.29714
1.8800000000000001	0.25636
1.8900000000000001	0.2117
1.9000000000000001	0.17592
1.9100000000000001	0.12257
1.92	0.09754
1.93	0.0738
1.94	0.06154
1.95	0.05699
1.96	0.04942
1.97	0.04279
1.98	0.04447
1.99	0.04305
2.0	0.04091
2.0100000000000002	0.04059
2.02	0.04024
2.0300000000000002	0.04473
2.04	0.03834
2.05	0.03481
2.06	0.03856
2.07	0.03472
2.08	0.04298
2.09	0.0402
2.1	0.05426
2.11	0.05291
2.12	0.06448
2.13	0.08071
2.14	0.09264
2.15	0.11279
2.16	0.13903
2.17	0.15162
2.18	0.17759
2.19	0.19999
2.2	0.21957
2.21	0.23938
2.22	0.2444
2.23	0.25947
2.24	0.25709
2.25	0.25844
2.2600000000000002	0.24955
2.27	0.24191
2.2800000000000002	0.21406
2.29	0.18738
2.3000000000000003	0.16252
2.31	0.14626
2.32	0.12368
2.33	0.12019
2.34	0.11184
2.35	0.09211
2.36	0.09412
2.37	0.08418
2.38	0.08782
2.39	0.08987
2.4	0.07926
2.41	0.08076
2.42	0.07939
2.43	0.08417
2.44	0.08241
2.45	0.07172
2.46	0.07773
2.47	0.0964
2.48	0.07202
2.49	0.08305
2.5	0.06776
2.5100000000000002	0.06672
2.52	0.06389
2.5300000000000002	0.06567
2.54	0.06988
2.5500000000000003	0.06938
2.56	0.06409
2.57	0.05824
2.58	0.09361
2.59	0.068
2.6	0.11096
2.61	0.06788
2.62	0.08022
2.63	0.05011
2.64	0.08299
2.65	0.08308
2.66	0.04248
2.67	0.07362
2.68	0.07386
2.69	0.03785
2.7	0.03568
2.71	0.02977
2.72	0.0365
2.73	0.02112
2.74	0.03282
2.75	0.03537
2.7600000000000002	0.02135
2.77	0.02704
2.7800000000000002	0.01586
2.79	0.02476
2.8000000000000003	0.01759
2.81	0.02143
2.82	0.01466
2.83	0.02038
2.84	0.02942
2.85	0.02119
2.86	0.01524
2.87	0.0226
2.88	0.01502
2.89	0.03751
2.9	0.01459
2.91	0.02235
2.92	0.02836
2.93	0.00714
2.94	0.01572
2.95	0.01868
2.96	0.02937
2.97	0.02816
2.98	0.02687
2.99	0.02454
3.0	0.02427
3.0100000000000002	0.01644
3.02	0.02512
3.0300000000000002	0.02822
3.04	0.0305
3.0500000000000003	0.03441
3.06	0.0336
3.0700000000000003	0.04017
3.08	0.04584
3.09	0.05515
3.1	0.06512
3.11	0.06933
3.12	0.06242
3.13	0.05718
3.14	0.05151
3.15	0.04233
3.16	0.04678
3.17	0.04256
3.18	0.04417
3.19	0.04672
3.2	0.04357
3.21	0.04648
3.22	0.04427
3.23	0.04673
3.24	0.04259
3.25	0.03661
3.2600000000000002	0.04588
3.27	0.03657
3.2800000000000002	0.03071
3.29	0.02609
3.3000000000000003	0.03449
3.31	0.02842
3.3200000000000003	0.03054
3.33	0.02845
3.34	0.02496
3.35	0.03084
3.36	0.02489
3.37	0.035
3.38	0.0312
3.39	0.03271
3.4	0.03443
3.41	0.02843
3.42	0.02854
3.43	0.01848
3.44	0.03021
3.45	0.03212
3.46	0.032
3.47	0.03293
3.48	0.0258
3.49	0.02684
3.5	0.03113
3.5100000000000002	0.0302
3.52	0.0357
3.5300000000000002	0.03501
3.54	0.02962
3.5500000000000003	0.03464
3.56	0.03288
3.5700000000000003	0.03497
3.58	0.02884
3.59	0.0264
3.6	0.05872
3.65	0.04663
3.7	0.04111
3.75	0.03077
3.8000000000000003	0.04334
3.85	0.01832
3.9	0.03319
3.95	0.03284
4.0	0.02487
4.05	0.02256
4.1	0.01603
4.15	0.0221
4.2	0.04889
