# Water_Ice, Chemical Formula: H2O
# Sample ID: 680micron_100K
# wavelengths (microns), reflectance
0.45	0.79582
0.5	0.79078
0.55	0.81351
0.6	0.81448
0.65	0.82509
0.7000000000000001	0.80417
0.75	0.7995
0.8	0.7894
0.85	0.79078
0.9	0.77332
0.9500000000000001	0.76991
1.0	0.70093
1.01	0.69397
1.02	0.66787
1.03	0.63947
1.04	0.63735
1.05	0.62282
1.06	0.62578
1.07	0.64572
1.08	0.68016
1.09	0.68388
1.1	0.69245
1.11	0.67192
1.12	0.67919
1.1300000000000001	0.67659
1.1400000000000001	0.66749
1.1500000000000001	0.66084
1.16	0.63939
1.17	0.61919
1.18	0.58075
1.19	0.5596
1.2	0.50729
1.21	0.48326
1.22	0.448
1.23	0.42503
1.24	0.40199
1.25	0.38669
1.26	0.36249
1.27	0.36452
1.28	0.36308
1.29	0.37082
1.3	0.35097
1.31	0.34856
1.32	0.37554
1.33	0.40589
1.34	0.42494
1.35	0.42731
1.36	0.43863
1.37	0.42837
1.3800000000000001	0.42594
1.3900000000000001	0.41439
1.4000000000000001	0.39401
1.41	0.37468
1.42	0.33612
1.43	0.28569
1.44	0.22598
1.45	0.16878
1.46	0.11549
1.47	0.08266
1.48	0.06474
1.49	0.05136
1.5	0.04973
1.51	0.04174
1.52	0.04759
1.53	0.04441
1.54	0.04744
1.55	0.04264
1.56	0.04467
1.57	0.04294
1.58	0.05063
1.59	0.0517
1.6	0.05901
1.61	0.06598
1.62	0.06784
1.6300000000000001	0.06557
1.6400000000000001	0.05741
1.6500000000000001	0.05007
1.6600000000000001	0.05073
1.67	0.06442
1.68	0.08571
1.69	0.10716
1.7	0.1174
1.71	0.1338
1.72	0.15033
1.73	0.16949
1.74	0.17575
1.75	0.18768
1.76	0.18848
1.77	0.19216
1.78	0.19316
1.79	0.20005
1.8	0.19027
1.81	0.19354
1.82	0.19614
1.83	0.19172
1.84	0.19803
1.85	0.19251
1.86	0.17547
1.87	0.1662
1.8800000000000001	0.13601
1.8900000000000001	0.1084
1.9000000000000001	0.08864
1.9100000000000001	0.06308
1.92	0.05271
1.93	0.04767
1.94	0.04324
1.95	0.03561
1.96	0.03336
1.97	0.03534
1.98	0.03322
1.99	0.03436
2.0	0.03388
2.0100000000000002	0.03097
2.02	0.03306
2.0300000000000002	0.03307
2.04	0.03868
2.05	0.03419
2.06	0.03334
2.07	0.03946
2.08	0.04165
2.09	0.03305
2.1	0.03803
2.11	0.04452
2.12	0.04603
2.13	0.04754
2.14	0.05337
2.15	0.06275
2.16	0.07104
2.17	0.08021
2.18	0.09065
2.19	0.10775
2.2	0.11762
2.21	0.12656
2.22	0.12735
2.23	0.13604
2.24	0.14623
2.25	0.14751
2.2600000000000002	0.13848
2.27	0.12767
2.2800000000000002	0.11321
2.29	0.09262
2.3000000000000003	0.08538
2.31	0.07422
2.32	0.06045
2.33	0.05578
2.34	0.05252
2.35	0.05395
2.36	0.04741
2.37	0.05011
2.38	0.04676
2.39	0.04694
2.4	0.05061
2.41	0.04315
2.42	0.04318
2.43	0.04438
2.44	0.04957
2.45	0.04846
2.46	0.05193
2.47	0.03966
2.48	0.03661
2.49	0.03894
2.5	0.04079
2.5100000000000002	0.03187
2.52	0.03887
2.5300000000000002	0.04843
2.54	0.0349
2.5500000000000003	0.04344
2.56	0.0417
2.57	0.03025
2.58	0.02637
2.59	0.03965
2.6	0.05477
2.61	0.03541
2.62	0.03771
2.63	0.04225
2.64	0.03586
2.65	0.04241
2.66	0.03161
2.67	0.0587
2.68	0.02642
2.69	0.02708
2.7	0.02422
2.71	0.02817
2.72	0.03185
2.73	0.02362
2.74	0.03821
2.75	0.01869
2.7600000000000002	0.03042
2.77	0.01962
2.7800000000000002	0.03803
2.79	0.01827
2.8000000000000003	0.01657
2.81	0.00762
2.82	0.01619
2.83	0.01165
2.84	0.01037
2.85	0.01233
2.86	0.01834
2.87	0.02127
2.88	0.01855
2.89	0.02822
2.9	0.01187
2.91	0.01252
2.92	0.021
2.93	0.01881
2.94	0.02892
2.95	0.0214
2.96	0.04386
2.97	0.02366
2.98	0.02608
2.99	0.02031
3.0	0.02521
3.0100000000000002	0.03601
3.02	0.01939
3.0300000000000002	0.02988
3.04	0.04241
3.0500000000000003	0.05187
3.06	0.05325
3.0700000000000003	0.06787
3.08	0.07811
3.09	0.09357
3.1	0.09949
3.11	0.11578
3.12	0.10399
3.13	0.09443
3.14	0.07763
3.15	0.07083
3.16	0.06323
3.17	0.07368
3.18	0.06538
3.19	0.06786
3.2	0.06509
3.21	0.06269
3.22	0.07009
3.23	0.06238
3.24	0.06025
3.25	0.05415
3.2600000000000002	0.05084
3.27	0.04757
3.2800000000000002	0.03218
3.29	0.0478
3.3000000000000003	0.04358
3.31	0.03909
3.3200000000000003	0.03605
3.33	0.04316
3.34	0.03572
3.35	0.04142
3.36	0.03473
3.37	0.03558
3.38	0.03133
3.39	0.03917
3.4	0.03218
3.41	0.03636
3.42	0.02756
3.43	0.03489
3.44	0.03026
3.45	0.03831
3.46	0.03384
3.47	0.0296
3.48	0.0367
3.49	0.03539
3.5	0.02899
3.5100000000000002	0.02715
3.52	0.03553
3.5300000000000002	0.03853
3.54	0.03882
3.5500000000000003	0.04346
3.56	0.03261
3.5700000000000003	0.03777
3.58	0.03607
3.59	0.03451
3.6	0.03731
3.65	0.03753
3.7	0.03384
3.75	0.03477
3.8000000000000003	0.02303
3.85	0.03545
3.9	0.03294
3.95	0.01963
4.0	0.03396
4.05	0.02877
4.1	0.01894
4.15	0.01905
4.2	0.02694
