# Water_Ice, Chemical Formula: H2O
# Sample ID: 1060micron_140K
# wavelengths (microns), reflectance
0.45	0.78665
0.5	0.76182
0.55	0.77567
0.6	0.76162
0.65	0.76251
0.7000000000000001	0.7543
0.75	0.75313
0.8	0.73948
0.85	0.73635
0.9	0.70702
0.9500000000000001	0.69793
1.0	0.61882
1.01	0.59894
1.02	0.58248
1.03	0.55844
1.04	0.55138
1.05	0.53444
1.06	0.54206
1.07	0.56469
1.08	0.59406
1.09	0.60024
1.1	0.61544
1.11	0.59907
1.12	0.58303
1.1300000000000001	0.58584
1.1400000000000001	0.58611
1.1500000000000001	0.5677
1.16	0.55491
1.17	0.5203
1.18	0.49121
1.19	0.46315
1.2	0.42299
1.21	0.39233
1.22	0.35753
1.23	0.34878
1.24	0.32527
1.25	0.30746
1.26	0.28341
1.27	0.27976
1.28	0.29273
1.29	0.29705
1.3	0.28776
1.31	0.28202
1.32	0.30476
1.33	0.31646
1.34	0.33201
1.35	0.33479
1.36	0.34668
1.37	0.34136
1.3800000000000001	0.33043
1.3900000000000001	0.31964
1.4000000000000001	0.30719
1.41	0.28809
1.42	0.24961
1.43	0.19763
1.44	0.14764
1.45	0.10802
1.46	0.0754
1.47	0.05716
1.48	0.044
1.49	0.04205
1.5	0.03859
1.51	0.03831
1.52	0.03731
1.53	0.04157
1.54	0.03845
1.55	0.03826
1.56	0.03393
1.57	0.03853
1.58	0.03936
1.59	0.04304
1.6	0.04317
1.61	0.05009
1.62	0.05005
1.6300000000000001	0.048
1.6400000000000001	0.04705
1.6500000000000001	0.04947
1.6600000000000001	0.04488
1.67	0.05432
1.68	0.05937
1.69	0.0577
1.7	0.07612
1.71	0.07826
1.72	0.08429
1.73	0.09082
1.74	0.103
1.75	0.10884
1.76	0.11643
1.77	0.11804
1.78	0.11411
1.79	0.12272
1.8	0.1267
1.81	0.12677
1.82	0.12771
1.83	0.13007
1.84	0.1323
1.85	0.13102
1.86	0.12223
1.87	0.10855
1.8800000000000001	0.0905
1.8900000000000001	0.07405
1.9000000000000001	0.06231
1.9100000000000001	0.04917
1.92	0.0472
1.93	0.03428
1.94	0.03154
1.95	0.02698
1.96	0.0322
1.97	0.03723
1.98	0.02712
1.99	0.02818
2.0	0.03349
2.0100000000000002	0.02897
2.02	0.03136
2.0300000000000002	0.03017
2.04	0.0321
2.05	0.03327
2.06	0.03364
2.07	0.03252
2.08	0.03284
2.09	0.02752
2.1	0.03644
2.11	0.02985
2.12	0.03846
2.13	0.03627
2.14	0.0365
2.15	0.04199
2.16	0.05177
2.17	0.06161
2.18	0.05519
2.19	0.05714
2.2	0.06763
2.21	0.0801
2.22	0.07874
2.23	0.09034
2.24	0.08993
2.25	0.09201
2.2600000000000002	0.08108
2.27	0.07862
2.2800000000000002	0.07537
2.29	0.07077
2.3000000000000003	0.0625
2.31	0.04427
2.32	0.04418
2.33	0.04843
2.34	0.03993
2.35	0.04288
2.36	0.03996
2.37	0.0251
2.38	0.04025
2.39	0.03768
2.4	0.05078
2.41	0.03935
2.42	0.04014
2.43	0.02971
2.44	0.03414
2.45	0.04056
2.46	0.02661
2.47	0.02624
2.48	0.04379
2.49	0.02446
2.5	0.02769
2.5100000000000002	0.02858
2.52	0.04392
2.5300000000000002	0.03319
2.54	0.03596
2.5500000000000003	0.02911
2.56	0.0278
2.57	0.04413
2.58	0.03187
2.59	0.04072
2.6	0.04677
2.61	0.02403
2.62	0.03939
2.63	0.03633
2.64	0.03135
2.65	0.02491
2.66	0.04077
2.67	0.04884
2.68	0.05312
2.69	0.03403
2.7	0.0182
2.71	0.03831
2.72	0.01977
2.73	0.02392
2.74	0.05385
2.75	0.03449
2.7600000000000002	0.0221
2.77	0.03415
2.7800000000000002	0.02029
2.79	0.02144
2.8000000000000003	0.0121
2.81	0.01752
2.82	0.02092
2.83	0.02998
2.84	0.02665
2.85	0.02916
2.86	0.0152
2.87	0.01027
2.88	0.05344
2.89	0.02953
2.9	0.01229
2.91	0.02946
2.92	0.02688
2.93	0.02833
2.94	0.01987
2.95	0.01875
2.96	0.02322
2.97	0.01606
2.98	0.02953
2.99	0.0532
3.0	0.02394
3.0100000000000002	0.02749
3.02	0.02396
3.0300000000000002	0.03907
3.04	0.03961
3.0500000000000003	0.04212
3.06	0.05131
3.0700000000000003	0.06309
3.08	0.07299
3.09	0.08114
3.1	0.09059
3.11	0.08549
3.12	0.08535
3.13	0.08135
3.14	0.07295
3.15	0.06145
3.16	0.0588
3.17	0.06428
3.18	0.06314
3.19	0.06534
3.2	0.06067
3.21	0.0557
3.22	0.05579
3.23	0.05841
3.24	0.05834
3.25	0.05179
3.2600000000000002	0.05351
3.27	0.04399
3.2800000000000002	0.04259
3.29	0.03793
3.3000000000000003	0.03967
3.31	0.04346
3.3200000000000003	0.04659
3.33	0.03159
3.34	0.03636
3.35	0.02706
3.36	0.03863
3.37	0.03375
3.38	0.03024
3.39	0.0344
3.4	0.03678
3.41	0.03278
3.42	0.03125
3.43	0.03614
3.44	0.02947
3.45	0.03837
3.46	0.03266
3.47	0.03458
3.48	0.03377
3.49	0.03273
3.5	0.04082
3.5100000000000002	0.03343
3.52	0.03274
3.5300000000000002	0.03507
3.54	0.03389
3.5500000000000003	0.02964
3.56	0.03152
3.5700000000000003	0.04389
3.58	0.02144
3.59	0.03518
3.6	0.03366
3.65	0.03296
3.7	0.03533
3.75	0.03255
3.8000000000000003	0.03064
3.85	0.02787
3.9	0.03414
3.95	0.01848
4.0	0.04299
4.05	0.02291
4.1	0.03701
4.15	0.03474
4.2	0.07656
