# Water_Ice, Chemical Formula: H2O
# Sample ID: 300micron_irr_220K
# wavelengths (microns), reflectance
0.45	0.92236
0.5	0.77136
0.55	0.89835
0.6	0.89154
0.65	0.8891
0.7000000000000001	0.88417
0.75	0.88286
0.8	0.87299
0.85	0.87035
0.9	0.85143
0.9500000000000001	0.84977
1.0	0.78453
1.01	0.76345
1.02	0.76138
1.03	0.74022
1.04	0.73769
1.05	0.7414
1.06	0.757
1.07	0.77925
1.08	0.78435
1.09	0.7876
1.1	0.78734
1.11	0.79694
1.12	0.78479
1.1300000000000001	0.77521
1.1400000000000001	0.76295
1.1500000000000001	0.75904
1.16	0.73646
1.17	0.71168
1.18	0.68922
1.19	0.65515
1.2	0.6172
1.21	0.58766
1.22	0.5723
1.23	0.54326
1.24	0.53318
1.25	0.52459
1.26	0.52237
1.27	0.52746
1.28	0.53503
1.29	0.53733
1.3	0.53707
1.31	0.53653
1.32	0.54873
1.33	0.54508
1.34	0.55046
1.35	0.55439
1.36	0.55178
1.37	0.54635
1.3800000000000001	0.54163
1.3900000000000001	0.52216
1.4000000000000001	0.50517
1.41	0.46814
1.42	0.41798
1.43	0.35254
1.44	0.27077
1.45	0.20091
1.46	0.14549
1.47	0.10413
1.48	0.08292
1.49	0.07377
1.5	0.06621
1.51	0.06939
1.52	0.07072
1.53	0.06939
1.54	0.0698
1.55	0.0713
1.56	0.07893
1.57	0.08326
1.58	0.09377
1.59	0.10396
1.6	0.11385
1.61	0.11942
1.62	0.12359
1.6300000000000001	0.12758
1.6400000000000001	0.12918
1.6500000000000001	0.13139
1.6600000000000001	0.14571
1.67	0.14808
1.68	0.15909
1.69	0.17496
1.7	0.17973
1.71	0.19222
1.72	0.2032
1.73	0.2116
1.74	0.22427
1.75	0.22956
1.76	0.23199
1.77	0.24114
1.78	0.24814
1.79	0.25764
1.8	0.25742
1.81	0.26809
1.82	0.26991
1.83	0.28001
1.84	0.27897
1.85	0.27506
1.86	0.2611
1.87	0.2479
1.8800000000000001	0.21738
1.8900000000000001	0.16556
1.9000000000000001	0.12931
1.9100000000000001	0.10028
1.92	0.06341
1.93	0.0541
1.94	0.04882
1.95	0.04367
1.96	0.04681
1.97	0.03618
1.98	0.0427
1.99	0.03527
2.0	0.03584
2.0100000000000002	0.03596
2.02	0.0415
2.0300000000000002	0.03782
2.04	0.03576
2.05	0.03362
2.06	0.04404
2.07	0.03877
2.08	0.04986
2.09	0.05012
2.1	0.05438
2.11	0.05438
2.12	0.06823
2.13	0.07324
2.14	0.08321
2.15	0.09547
2.16	0.11364
2.17	0.12759
2.18	0.14632
2.19	0.15898
2.2	0.16373
2.21	0.1822
2.22	0.19045
2.23	0.19795
2.24	0.20369
2.25	0.20245
2.2600000000000002	0.1994
2.27	0.185
2.2800000000000002	0.17773
2.29	0.15871
2.3000000000000003	0.14565
2.31	0.1384
2.32	0.11588
2.33	0.11747
2.34	0.09238
2.35	0.09064
2.36	0.08626
2.37	0.09197
2.38	0.07595
2.39	0.07446
2.4	0.0718
2.41	0.08669
2.42	0.06573
2.43	0.07423
2.44	0.07713
2.45	0.05616
2.46	0.06383
2.47	0.05724
2.48	0.0622
2.49	0.0511
2.5	0.06713
2.5100000000000002	0.05721
2.52	0.04591
2.5300000000000002	0.05901
2.54	0.04337
2.5500000000000003	0.06032
2.56	0.0561
2.57	0.06426
2.58	0.06077
2.59	0.0662
2.6	0.05759
2.61	0.05375
2.62	0.05867
2.63	0.05874
2.64	0.04249
2.65	0.04383
2.66	0.04773
2.67	0.05603
2.68	0.032
2.69	0.02778
2.7	0.03989
2.71	0.03137
2.72	0.03929
2.73	0.02112
2.74	0.02481
2.75	0.02901
2.7600000000000002	0.02387
2.77	0.02196
2.7800000000000002	0.03375
2.79	0.00911
2.8000000000000003	0.01705
2.81	0.0144
2.82	0.01025
2.83	0.01684
2.84	0.01793
2.85	0.04189
2.86	0.02251
2.87	0.02759
2.88	0.01137
2.89	0.02674
2.9	0.01211
2.91	0.02952
2.92	0.01837
2.93	0.02268
2.94	0.01507
2.95	0.013
2.96	0.04051
2.97	0.03
2.98	0.03164
2.99	0.01996
3.0	0.0201
3.0100000000000002	0.02753
3.02	0.03226
3.0300000000000002	0.03726
3.04	0.03525
3.0500000000000003	0.04655
3.06	0.04541
3.0700000000000003	0.05571
3.08	0.04919
3.09	0.05525
3.1	0.05113
3.11	0.04592
3.12	0.04524
3.13	0.04737
3.14	0.04569
3.15	0.04795
3.16	0.04816
3.17	0.04487
3.18	0.04373
3.19	0.05159
3.2	0.03922
3.21	0.0306
3.22	0.04215
3.23	0.0402
3.24	0.03952
3.25	0.04005
3.2600000000000002	0.03606
3.27	0.03352
3.2800000000000002	0.04204
3.29	0.02955
3.3000000000000003	0.02977
3.31	0.02669
3.3200000000000003	0.0284
3.33	0.03356
3.34	0.02747
3.35	0.02525
3.36	0.02739
3.37	0.02366
3.38	0.02486
3.39	0.034
3.4	0.02062
3.41	0.01935
3.42	0.02652
3.43	0.02319
3.44	0.02332
3.45	0.02202
3.46	0.01327
3.47	0.0278
3.48	0.02306
3.49	0.0265
3.5	0.01935
3.5100000000000002	0.01992
3.52	0.02867
3.5300000000000002	0.02703
3.54	0.02413
3.5500000000000003	0.02326
3.56	0.02488
3.5700000000000003	0.03137
3.58	0.02531
3.59	0.0246
3.6	0.02684
3.65	0.04017
3.7	0.02937
3.75	0.02789
3.8000000000000003	0.02553
3.85	0.01841
3.9	0.03811
3.95	0.04168
4.0	0.01795
4.05	0.01848
4.1	0.01561
4.15	0.0166
4.2	0.04257
