# Water_Ice, Chemical Formula: H2O
# Sample ID: 680micron_85K
# wavelengths (microns), reflectance
0.45	0.75389
0.5	0.83087
0.55	0.81881
0.6	0.81695
0.65	0.81026
0.7000000000000001	0.80264
0.75	0.79982
0.8	0.79026
0.85	0.79131
0.9	0.77424
0.9500000000000001	0.77038
1.0	0.72098
1.01	0.69129
1.02	0.66437
1.03	0.64046
1.04	0.63855
1.05	0.61999
1.06	0.63121
1.07	0.65304
1.08	0.66833
1.09	0.69418
1.1	0.70144
1.11	0.67351
1.12	0.69232
1.1300000000000001	0.67394
1.1400000000000001	0.65815
1.1500000000000001	0.66116
1.16	0.64041
1.17	0.6244
1.18	0.58055
1.19	0.55919
1.2	0.52083
1.21	0.48433
1.22	0.45347
1.23	0.43284
1.24	0.39905
1.25	0.39063
1.26	0.3681
1.27	0.3557
1.28	0.35684
1.29	0.36366
1.3	0.35444
1.31	0.34251
1.32	0.3778
1.33	0.40895
1.34	0.41759
1.35	0.43313
1.36	0.43709
1.37	0.43025
1.3800000000000001	0.4275
1.3900000000000001	0.4109
1.4000000000000001	0.39821
1.41	0.37814
1.42	0.34153
1.43	0.29528
1.44	0.23671
1.45	0.17696
1.46	0.12603
1.47	0.08554
1.48	0.0653
1.49	0.05058
1.5	0.04685
1.51	0.04671
1.52	0.0441
1.53	0.0448
1.54	0.04335
1.55	0.04443
1.56	0.04177
1.57	0.04439
1.58	0.04604
1.59	0.05059
1.6	0.05591
1.61	0.06647
1.62	0.06974
1.6300000000000001	0.0652
1.6400000000000001	0.05814
1.6500000000000001	0.05429
1.6600000000000001	0.05206
1.67	0.06238
1.68	0.08394
1.69	0.111
1.7	0.13018
1.71	0.14599
1.72	0.16444
1.73	0.17925
1.74	0.1888
1.75	0.19611
1.76	0.2005
1.77	0.19831
1.78	0.19818
1.79	0.19922
1.8	0.2033
1.81	0.19886
1.82	0.19514
1.83	0.19398
1.84	0.20075
1.85	0.20063
1.86	0.1825
1.87	0.17062
1.8800000000000001	0.14175
1.8900000000000001	0.11694
1.9000000000000001	0.09207
1.9100000000000001	0.0629
1.92	0.05806
1.93	0.04557
1.94	0.0489
1.95	0.04444
1.96	0.03997
1.97	0.03507
1.98	0.03649
1.99	0.03862
2.0	0.03291
2.0100000000000002	0.03607
2.02	0.03235
2.0300000000000002	0.03586
2.04	0.0254
2.05	0.03854
2.06	0.03068
2.07	0.03284
2.08	0.03282
2.09	0.02735
2.1	0.04205
2.11	0.04881
2.12	0.04687
2.13	0.05263
2.14	0.04857
2.15	0.0598
2.16	0.06679
2.17	0.08407
2.18	0.09662
2.19	0.10583
2.2	0.12556
2.21	0.12652
2.22	0.12992
2.23	0.15021
2.24	0.14562
2.25	0.14314
2.2600000000000002	0.13763
2.27	0.12751
2.2800000000000002	0.11131
2.29	0.1004
2.3000000000000003	0.08598
2.31	0.07458
2.32	0.06736
2.33	0.06003
2.34	0.05773
2.35	0.05638
2.36	0.04938
2.37	0.06268
2.38	0.05892
2.39	0.04983
2.4	0.05147
2.41	0.04451
2.42	0.0382
2.43	0.04525
2.44	0.04663
2.45	0.05525
2.46	0.04128
2.47	0.04901
2.48	0.03771
2.49	0.04403
2.5	0.04344
2.5100000000000002	0.04814
2.52	0.03532
2.5300000000000002	0.03655
2.54	0.03994
2.5500000000000003	0.05565
2.56	0.03384
2.57	0.05379
2.58	0.05808
2.59	0.02868
2.6	0.06108
2.61	0.04388
2.62	0.0344
2.63	0.04727
2.64	0.03446
2.65	0.03644
2.66	0.03304
2.67	0.0555
2.68	0.0601
2.69	0.03963
2.7	0.00995
2.71	0.01967
2.72	0.02299
2.73	0.00918
2.74	0.0209
2.75	0.03148
2.7600000000000002	0.02097
2.77	0.02114
2.7800000000000002	0.01051
2.79	0.0171
2.8000000000000003	0.01591
2.81	0.0209
2.82	0.01044
2.83	0.01699
2.84	0.01597
2.85	0.01753
2.86	0.01641
2.87	0.02291
2.88	0.02459
2.89	0.0116
2.9	0.03161
2.91	0.02207
2.92	0.024
2.93	0.01554
2.94	0.02434
2.95	0.0181
2.96	0.01214
2.97	0.01984
2.98	0.01634
2.99	0.02623
3.0	0.02195
3.0100000000000002	0.03126
3.02	0.02835
3.0300000000000002	0.03294
3.04	0.03622
3.0500000000000003	0.04191
3.06	0.04376
3.0700000000000003	0.06202
3.08	0.08154
3.09	0.09483
3.1	0.10926
3.11	0.12323
3.12	0.11225
3.13	0.10274
3.14	0.08257
3.15	0.06575
3.16	0.06764
3.17	0.06667
3.18	0.0663
3.19	0.07025
3.2	0.06484
3.21	0.06998
3.22	0.06724
3.23	0.06865
3.24	0.07077
3.25	0.05803
3.2600000000000002	0.05162
3.27	0.051
3.2800000000000002	0.05456
3.29	0.04152
3.3000000000000003	0.05207
3.31	0.05148
3.3200000000000003	0.0398
3.33	0.0388
3.34	0.04075
3.35	0.04653
3.36	0.03627
3.37	0.04421
3.38	0.0397
3.39	0.02963
3.4	0.02884
3.41	0.03451
3.42	0.0331
3.43	0.02994
3.44	0.02539
3.45	0.03646
3.46	0.02723
3.47	0.04135
3.48	0.03581
3.49	0.03383
3.5	0.03336
3.5100000000000002	0.03119
3.52	0.03458
3.5300000000000002	0.03577
3.54	0.03608
3.5500000000000003	0.04201
3.56	0.03619
3.5700000000000003	0.03815
3.58	0.03152
3.59	0.03424
3.6	0.03954
3.65	0.0397
3.7	0.03654
3.75	0.02451
3.8000000000000003	0.02996
3.85	0.0322
3.9	0.02995
3.95	0.03561
4.0	0.02995
4.05	0.01957
4.1	0.04916
4.15	0.04645
4.2	0.04512
